File: v65/messwerte/mess1.txt
#; (content of file C:\Users\BrukerAdm\Desktop\Praktikum\65_hering_ptaszyk\mess1.raw)
#_FILEVERSION = 2
#_SAMPLE =
#_+SAMPLE =
#_SITE = Dortmund
#_USER = "Metin Tolan"
#_GONIOMETER_CODE = 21
#_STAGE_CODE = 8
#; Goniometer : D8 theta/theta, stage : XYZ Drive(s)
#_SAMPLE_CHANGER_CODE = 0
#_ATTACHMENTS_CODE = 0
#_GONIOMETER_RADIUS = 300
#_FIXED_DIVSLIT = 0.15
#_FIXED_SAMPLESLIT = 1
#_SOLLER_SLITS = 2
#_FIXED_DETSLIT = 1
#_MONOCHROMATOR = 0
#; Incident beam monochromator : None
#_THIN_FILM = N
#_BETA_FILTER = N
#_FIXED_ANTISLIT = 0.15
#_ANALYZER_CODE = 0
#; Received beam analyzer : None
#_DATEMEASURED = "18-Feb-2019 10:55:45"
#_WL_UNIT = A
#_WL1 = 1.5406
#_WL2 = 1.54439
#_WL3 = 1.39222
#_WLRATIO = 0.5
#_ANODE = Cu
#
#; Data for range 1
#_DRIVE = THETA
#_STEPTIME = 4.994
#_STEPSIZE = 0.005
#_STEPMODE = C
#_START = 0
#_THETA = 0
#_2THETA = 0
#_KHI = 0
#_PHI = 0
#_X = 30
#_Y = 4
#_Z = 18.76
#_DETECTOR = 1
#; Detector type : Scintillation counter
#_HV = 743.4
#_GAIN = 80
#_LLD = 0.98
#_ULD = 2.01
#_DETECTORSLIT = out
#_AUX1 = 0
#_AUX2 = 0
#_AUX3 = 0
#_TIMESTARTED = 2
#_TEMP_RATE = -1
#_TEMP_DELAY = -1
#_KV = 40
#_MA = 40
#_RANGE_WL = 1.5406
#_3DPLANE = 0
#_V4_COUNTERS_MASK = 1
#_V4_DRIVES_MASK = 0
#_V4_ENCODERS_MASK = 0
#_2THETACOUNTS = 1
#; THETA  Cnt1_D1
   0.0000  268566016
   0.0100  297107008
   0.0200  127814000
   0.0300   59663900
   0.0400   62112400
   0.0500   74871000
   0.0600   86645296
   0.0700  104097000
   0.0800  116063000
   0.0900  129770000
   0.1000  142384000
   0.1100  156499008
   0.1200  167156992
   0.1300  179556000
   0.1400  192362000
   0.1500  194163008
   0.1600  193899008
   0.1700  209394000
   0.1800  207906000
   0.1900  224168992
   0.2000  222908992
   0.2100  208950000
   0.2200  162764992
   0.2300   82576496
   0.2400   29225800
   0.2500   19828000
   0.2600   23068600
   0.2700   17607500
   0.2800    8269650
   0.2900    4855650
   0.3000    7379920
   0.3100    8256750
   0.3200    5390510
   0.3300    2409770
   0.3400    2275010
   0.3500    3685300
   0.3600    3843480
   0.3700    2384260
   0.3800    1107800
   0.3900    1269120
   0.4000    2030530
   0.4100    2050090
   0.4200    1229990
   0.4300     609286
   0.4400     715861
   0.4500    1163010
   0.4600    1218110
   0.4700     782602
   0.4800     379585
   0.4900     427042
   0.5000     701441
   0.5100     786210
   0.5200     543443
   0.5300     270981
   0.5400     246660
   0.5500     416114
   0.5600     507263
   0.5700     385753
   0.5800     197912
   0.5900     153935
   0.6000     254742
   0.6100     333154
   0.6200     279561
   0.6300     154919
   0.6400     101632
   0.6500     155236
   0.6600     220964
   0.6700     207497
   0.6800     125202
   0.6900      73090
   0.7000      96385
   0.7100     148201
   0.7200     155702
   0.7300     107345
   0.7400      57571
   0.7500      61210
   0.7600      95359
   0.7700     112317
   0.7800      89213
   0.7900      49129
   0.8000      40657
   0.8100      62775
   0.8200      83330
   0.8300      72999
   0.8400      44321
   0.8500      29671
   0.8600      40598
   0.8700      58549
   0.8800      58387
   0.8900      39653
   0.9000      23804
   0.9100      26396
   0.9200      39999
   0.9300      45685
   0.9400      34882
   0.9500      20545
   0.9600      17846
   0.9700      26973
   0.9800      34431
   0.9900      30372
   1.0000      19279
   1.0100      13341
   1.0200      17677
   1.0300      24725
   1.0400      24838
   1.0500      17829
   1.0600      11237
   1.0700      11967
   1.0800      17716
   1.0900      20269
   1.1000      15852
   1.1100       9951
   1.1200       8607
   1.1300      12157
   1.1400      15578
   1.1500      13783
   1.1600       9033
   1.1700       6484
   1.1800       8395
   1.1900      11566
   1.2000      11661
   1.2100       8328
   1.2200       5731
   1.2300       6037
   1.2400       8583
   1.2500       9700
   1.2600       7620
   1.2700       5001
   1.2800       4385
   1.2900       5958
   1.3000       7394
   1.3100       6722
   1.3200       4565
   1.3300       3444
   1.3400       4358
   1.3500       5643
   1.3600       5639
   1.3700       4315
   1.3800       2813
   1.3900       2992
   1.4000       4302
   1.4100       4728
   1.4200       3879
   1.4300       2643
   1.4400       2402
   1.4500       3108
   1.4600       3746
   1.4700       3345
   1.4800       2466
   1.4900       1891
   1.5000       2195
   1.5100       2938
   1.5200       2902
   1.5300       2286
   1.5400       1643
   1.5500       1601
   1.5600       2195
   1.5700       2495
   1.5800       2046
   1.5900       1475
   1.6000       1243
   1.6100       1591
   1.6200       1888
   1.6300       1906
   1.6400       1390
   1.6500       1047
   1.6600       1230
   1.6700       1531
   1.6800       1583
   1.6900       1292
   1.7000        937
   1.7100        937
   1.7200       1155
   1.7300       1365
   1.7400       1161
   1.7500        833
   1.7600        722
   1.7700        873
   1.7800       1063
   1.7900       1024
   1.8000        812
   1.8100        611
   1.8200        653
   1.8300        819
   1.8400        817
   1.8500        709
   1.8600        577
   1.8700        503
   1.8800        620
   1.8900        772
   1.9000        619
   1.9100        520
   1.9200        446
   1.9300        550
   1.9400        576
   1.9500        579
   1.9600        496
   1.9700        376
   1.9800        417
   1.9900        473
   2.0000        515
   2.0100        427
   2.0200        313
   2.0300        338
   2.0400        372
   2.0500        428
   2.0600        354
   2.0700        292
   2.0800        278
   2.0900        282
   2.1000        334
   2.1100        358
   2.1200        324
   2.1300        201
   2.1400        277
   2.1500        269
   2.1600        299
   2.1700        285
   2.1800        240
   2.1900        230
   2.2000        231
   2.2100        264
   2.2200        257
   2.2300        217
   2.2400        174
   2.2500        196
   2.2600        231
   2.2700        220
   2.2800        176
   2.2900        162
   2.3000        166
   2.3100        204
   2.3200        197
   2.3300        184
   2.3400        161
   2.3500        161
   2.3600        178
   2.3700        180
   2.3800        181
   2.3900        146
   2.4000        122
   2.4100        148
   2.4200        144
   2.4300        143
   2.4400        134
   2.4500        106
   2.4600        122
   2.4700        138
   2.4800        126
   2.4900        129
   2.5000         98